Temperature (K), HCTotal (uJ/K), HCSample (µJ/K), Field (Oe)
27.802961,535.40591,407.48024,50000.383
27.932467,552.70533,423.53687,50000.383
28.054071,568.90614,438.56697,50000.383
28.168847,586.26032,454.81284,50000.383
28.277255,604.09396,471.59665,50000.383
28.379804,621.14636,487.65327,50000.383
28.476558,639.98012,505.5451,50000.383
28.568176,658.79908,523.46995,50000.383
28.654838,679.27611,543.09929,50000.383
28.737068,700.13033,563.14739,50000.383
28.814798,723.18399,585.43746,50000.383
28.88818,745.95942,607.4906,50000.383
28.95799,770.3676,631.21035,50000.383
29.023868,796.91093,657.10288,50000.383
29.08628,826.32225,685.8966,50000.383
29.145096,856.58537,715.57678,50000.383
29.200787,890.23904,748.67764,50000.383
29.25324,930.12625,788.04345,50000.383
29.302576,968.76451,826.19063,50000.383
29.349167,1011.365,868.32682,50000.383
29.392841,1059.6059,916.1319,50000.383
29.433716,1116.682,972.79964,50000.383
29.471821,1180.368,1036.1046,50000.383
29.507207,1264.1676,1119.5501,50000.383
29.539486,1372.9013,1227.9603,50000.383
29.567548,1563.0694,1417.8471,50000.383
29.59087,1923.3161,1777.8598,50000.383
29.609795,2546.9984,2401.352,50000.383
29.62445,3589.8998,3444.1063,50000.383
29.63535,5119.8844,4973.9814,50000.383
29.642896,6615.9797,6470.0008,50000.383
29.648569,7848.5567,7702.5208,50000.383
29.65345,9335.4906,9189.4057,50000.383
29.657674,10622.083,10475.956,50000.383
29.661512,11523.446,11377.28,50000.383
29.665038,11653.825,11507.624,50000.383
29.668486,11590.727,11444.491,50000.383
29.671988,11377.252,11230.98,50000.383
29.675418,11565.767,11419.461,50000.383
29.678867,11676.852,11530.512,50000.383
29.682264,11835.733,11689.358,50000.383
29.68557,12157.122,12010.714,50000.383
29.688959,12081.039,11934.597,50000.383
29.692439,11289.76,11143.283,50000.383
29.696064,10816.714,10670.201,50000.383
29.699682,10448.452,10301.902,50000.383
29.703396,10235.758,10089.171,50000.383
29.707307,10269.115,10122.489,50000.383
29.711327,10052.98,9906.3129,50000.383
29.71552,9262.5572,9115.8478,50000.383
29.720074,8291.4584,8144.7031,50000.383
29.725098,7426.954,7280.148,50000.383
29.730876,6467.8245,6320.9604,50000.383
29.73753,5568.1996,5421.2684,50000.383
29.746145,4351.8839,4204.8659,50000.383
29.758672,2951.8437,2804.6994,50000.383
29.77786,1850.5802,1703.2424,50000.383
29.805513,1213.8831,1066.2664,50000.383
29.842202,870.22545,722.23815,50000.383
29.888104,688.72393,540.27256,50000.383
29.942307,591.69372,442.69364,50000.383
30.00252,542.3597,392.74914,50000.383
30.065916,514.12229,363.86795,50000.383
30.13018,497.33186,346.42382,50000.383
30.194342,485.60112,334.03934,50000.383
30.257795,476.99864,324.78929,50000.383
30.320123,468.72208,315.87561,50000.383
30.381172,462.11176,308.64025,50000.383
30.440823,454.38657,300.30341,50000.383
30.498987,449.47114,294.79067,50000.383
30.555833,443.36546,288.10038,50000.383
30.610967,439.40242,283.56954,50000.383
30.664648,433.91419,277.52771,50000.383
30.716693,430.22028,273.29637,50000.383
30.767287,424.04387,266.59686,50000.383
30.816627,418.83778,260.88,50000.383
30.864244,412.81002,254.35872,50000.383
30.910714,407.86824,248.93474,50000.383
30.955729,401.45238,242.05126,50000.383
30.999419,398.1039,238.24845,50000.383
28.04976,651.82493,521.52733,50000.383
28.067274,657.27183,526.80534,50000.383
28.085008,663.16728,532.5297,50000.383
28.103235,666.57219,535.75868,50000.383
28.121543,669.78847,538.79816,50000.383
28.140397,671.8025,540.63004,50000.383
28.159655,673.76061,542.40201,50000.383
28.17933,673.23049,541.68162,50000.383
28.199291,681.037,549.295,50000.383
28.219586,682.60943,550.67096,50000.383
28.240513,686.7517,554.61053,50000.383
28.261684,690.64242,558.29608,50000.383
28.283181,695.29479,562.74001,50000.383
28.304959,698.3043,565.53823,50000.383
28.327261,706.94318,573.96064,50000.383
28.349881,713.73503,580.53277,50000.383
28.372798,715.87912,582.45415,50000.383
28.396004,722.21672,588.56609,50000.383
28.419643,727.30765,593.42701,50000.383
28.443569,735.42059,601.30699,50000.383
28.467907,741.38292,607.03222,50000.383
28.492553,747.12898,612.53801,50000.383
28.517465,751.70223,616.86826,50000.383
28.542768,760.4057,625.32474,50000.383
28.568538,761.98372,626.65106,50000.383
28.59453,772.18052,636.59381,50000.383
28.620792,779.71412,643.87055,50000.383
28.647286,789.62156,653.51868,50000.383
28.674169,797.87358,661.5074,50000.383
28.701283,810.41251,673.78059,50000.383
28.728435,816.34849,679.45026,50000.383
28.756082,824.67085,687.50127,50000.383
28.783843,834.5566,697.11435,50000.383
28.811864,847.21275,709.49508,50000.383
28.839968,857.61225,719.61813,50000.383
28.868306,870.68356,732.4105,50000.383
28.896672,887.78031,749.22782,50000.383
28.925052,901.28058,762.4483,50000.383
28.953588,915.94645,776.83264,50000.383
28.982196,930.0759,790.67966,50000.383
29.010875,943.13183,803.45223,50000.383
29.039623,954.303,814.33914,50000.383
29.068322,974.79765,834.54981,50000.383
29.096993,995.60632,855.07456,50000.383
29.125533,1018.7692,877.9546,50000.383
29.153967,1041.8064,900.70983,50000.383
29.181941,1073.1999,931.82567,50000.383
29.209837,1092.9167,951.26542,50000.383
29.237382,1126.8391,984.914,50000.383
29.264783,1151.6194,1009.4217,50000.383
29.291826,1180.6399,1038.1731,50000.383
29.318363,1211.6557,1068.9246,50000.383
29.344661,1258.864,1115.8707,50000.383
29.370204,1300.3091,1157.061,50000.383
29.395425,1356.4134,1212.9136,50000.383
29.41972,1411.2331,1267.4907,50000.383
29.443366,1469.774,1325.7952,50000.383
29.465949,1557.9811,1413.7764,50000.383
29.486586,1728.8635,1584.4523,50000.383
29.504585,2056.0738,1911.4825,50000.383
29.519663,2624.0483,2479.306,50000.383
29.532079,3546.4127,3401.546,50000.383
29.541595,4847.7977,4702.8356,50000.383
29.548777,6097.8728,5952.8387,50000.383
29.554567,6896.5103,6751.4182,50000.383
29.559885,7228.7588,7083.6134,50000.383
29.564736,7760.0612,7614.8671,50000.383
29.569376,7855.148,7709.9073,50000.383
29.573883,8195.0741,8049.7883,50000.383
29.578237,8640.3761,8495.0465,50000.383
29.58239,9232.7307,9087.3595,50000.383
29.586323,9284.7064,9139.2957,50000.383
29.590393,9513.9382,9368.4867,50000.383
29.594204,9551.0424,9405.5526,50000.383
29.598127,9386.0473,9240.5181,50000.383
29.601987,9403.0845,9257.5166,50000.383
29.605879,9633.4894,9487.8824,50000.383
29.60976,9706.2246,9560.5786,50000.383
29.61359,9617.2731,9471.5887,50000.383
29.61762,9470.3702,9324.6453,50000.383
29.621536,9227.4427,9081.6785,50000.383
29.625681,8896.4163,8750.6105,50000.383
29.630129,8372.9267,8227.0761,50000.383
29.634567,8160.4661,8014.5709,50000.383
29.639034,8247.1066,8101.1666,50000.383
29.643445,8334.536,8188.5516,50000.383
29.647826,8922.6021,8776.5737,50000.383
29.652095,9435.1114,9289.0401,50000.383
29.656204,9278.1642,9132.0515,50000.383
29.660316,9213.8755,9067.7215,50000.383
29.664459,9131.6403,8985.4447,50000.383
29.668543,9066.9254,8920.6886,50000.383
29.672851,8968.159,8821.879,50000.383
29.677302,8709.1881,8562.8632,50000.383
29.682097,7877.9337,7731.5607,50000.383
29.687344,7042.0827,6895.6568,50000.383
29.693275,6125.0446,5978.559,50000.383
29.700994,4853.7365,4707.1733,50000.383
29.711534,3499.96,3353.2907,50000.383
29.72688,2374.8133,2227.9894,50000.383
29.748736,1615.9689,1468.9248,50000.383
29.778892,1165.2664,1017.9182,50000.383
29.818315,910.17697,762.43094,50000.383
29.866594,766.4462,618.21237,50000.383
29.92335,687.15458,538.34649,50000.383
29.98707,644.45349,494.99966,50000.383
30.056366,621.70827,471.55097,50000.383
30.129966,608.03466,457.12879,50000.383
30.207234,597.72669,446.03343,50000.383
30.288051,590.57711,438.05861,50000.383
30.371973,585.43117,432.0539,50000.383
30.459161,581.53471,427.26332,50000.383
30.549715,577.78514,422.58301,50000.383
30.643469,575.31001,419.14203,50000.383
30.740138,574.59836,417.43214,50000.383
30.840219,572.734,414.53178,50000.383
30.943533,572.7936,413.51923,50000.383
